File: V44/data/messung2.UXD
; E:\FP\messung2.raw(Diffrac Plus V1.01 file) converted by XCH V1.0
_FILEVERSION=2
_SITE='Deutschland'
_USER='Administrator'
_GONIOMETER_CODE=4885
; D8 Theta/Theta; Special
_SAMPLE_CHANGER_CODE=0
_ATTACHMENTS_CODE=0
_GONIOMETER_RADIUS=350
_FIXED_DIVSLIT=0.600000
_FIXED_SAMPLESLIT=0.000000
_FIXED_DETSLIT=11.66
_MONOCHROMATOR=0
; None
_THIN_FILM='N'
_BETA_FILTER='Y'
_FIXED_ANTISLIT=8.340000
_ANALYZER_CODE=0
; None
_DATEMEASURED='07-Nov-2022 12:42:13'
_WL_UNIT='A'
_WL1=1.540600
_WL2=1.544390
_WL3=1.392220
_WLRATIO=0.500000
_ANODE='Cu'
; (Data for Range number 1)
_DRIVE='THETA'
_STEPTIME=5.000660
_STEPSIZE=0.005000
_STEPMODE='C'
_START=0.000000
_THETA=0.000000
_2THETA=0.100000
_KHI=0.000000
_PHI=92.46
_X=0.000000
_Y=-1.000000
_Z=0.204000
_DIVERGENCE=0.000000
_ANTISCATTER=0.000000
_DETECTOR=5
_DETECTORSLIT='unkn'
_AUX1=0.000000
_AUX2=0.000000
_AUX3=0.000000
_TIMESTARTED=3.000000
_TEMP_RATE=-1.000000
_TEMP_DELAY=-1.000000
_KV=40
_MA=35
_RANGE_WL=1.540600
_3DPLANE=0
_GONIOMETER=0.097500
_PSDCHANNEL0=0
_2THETACOUNTS
   0.0000    417322
   0.0100    287900
   0.0200    192555
   0.0300    148656
   0.0400    119890
   0.0500     96771
   0.0600     84135
   0.0700     80849
   0.0800     77730
   0.0900     76269
   0.1000     68148
   0.1100     60518
   0.1200     48754
   0.1300     40324
   0.1400     32697
   0.1500     26154
   0.1600     21988
   0.1700     19127
   0.1800     16401
   0.1900     14207
   0.2000     11797
   0.2100      8987
   0.2200      6158
   0.2300      3868
   0.2400      2474
   0.2500      1766
   0.2600      1338
   0.2700      1033
   0.2800       808
   0.2900       688
   0.3000       536
   0.3100       444
   0.3200       381
   0.3300       356
   0.3400       302
   0.3500       292
   0.3600       286
   0.3700       237
   0.3800       195
   0.3900       203
   0.4000       195
   0.4100       154
   0.4200       125
   0.4300       127
   0.4400       144
   0.4500       132
   0.4600       116
   0.4700       107
   0.4800       117
   0.4900        99
   0.5000        91
   0.5100        99
   0.5200        90
   0.5300        69
   0.5400        91
   0.5500        75
   0.5600        91
   0.5700        77
   0.5800        62
   0.5900        60
   0.6000        78
   0.6100        65
   0.6200        53
   0.6300        55
   0.6400        47
   0.6500        57
   0.6600        60
   0.6700        54
   0.6800        43
   0.6900        40
   0.7000        45
   0.7100        46
   0.7200        44
   0.7300        37
   0.7400        45
   0.7500        34
   0.7600        34
   0.7700        50
   0.7800        37
   0.7900        27
   0.8000        29
   0.8100        28
   0.8200        25
   0.8300        24
   0.8400        22
   0.8500        21
   0.8600        22
   0.8700        23
   0.8800        32
   0.8900        14
   0.9000        18
   0.9100        18
   0.9200        19
   0.9300        14
   0.9400         7
   0.9500        15
   0.9600        19
   0.9700        15
   0.9800        17
   0.9900        11
   1.0000        14
   1.0100         6
   1.0200         9
   1.0300         8
   1.0400         9
   1.0500        12
   1.0600         7
   1.0700         3
   1.0800         8
   1.0900         5
   1.1000         8
   1.1100         6
   1.1200         6
   1.1300         8
   1.1400         8
   1.1500         5
   1.1600         6
   1.1700         7
   1.1800         4
   1.1900        10
   1.2000         6
   1.2100         1
   1.2200         3
   1.2300         4
   1.2400         5
   1.2500         3
   1.2600         4
   1.2700         3
   1.2800         0
   1.2900         3
   1.3000         3
   1.3100         2
   1.3200         4
   1.3300         0
   1.3400         2
   1.3500         2
   1.3600         5
   1.3700         2
   1.3800         4
   1.3900         1
   1.4000         2
   1.4100         3
   1.4200         1
   1.4300         1
   1.4400         5
   1.4500         2
   1.4600         3
   1.4700         4
   1.4800         1
   1.4900         2
   1.5000         1
   1.5100         2
   1.5200         2
   1.5300         2
   1.5400         3
   1.5500         2
   1.5600         2
   1.5700         2
   1.5800         2
   1.5900         1
   1.6000         2
   1.6100         2
   1.6200         0
   1.6300         3
   1.6400         0
   1.6500         0
   1.6600         0
   1.6700         2
   1.6800         0
   1.6900         0
   1.7000         1
   1.7100         0
   1.7200         2
   1.7300         3
   1.7400         0
   1.7500         0
   1.7600         0
   1.7700         2
   1.7800         0
   1.7900         0
   1.8000         1
   1.8100         0
   1.8200         3
   1.8300         0
   1.8400         2
   1.8500         0
   1.8600         0
   1.8700         0
   1.8800         0
   1.8900         0
   1.9000         0
   1.9100         0
   1.9200         0
   1.9300         1
   1.9400         0
   1.9500         1
   1.9600         0
   1.9700         0
   1.9800         0
   1.9900         0
   2.0000         1
   2.0100         0
   2.0200         0
   2.0300         0
   2.0400         1
   2.0500         1
   2.0600         0
   2.0700         0
   2.0800         0
   2.0900         2
   2.1000         1
   2.1100         0
   2.1200         0
   2.1300         0
   2.1400         0
   2.1500         0
   2.1600         0
   2.1700         0
   2.1800         0
   2.1900         0
   2.2000         0
   2.2100         2
   2.2200         1
   2.2300         0
   2.2400         0
   2.2500         0
   2.2600         0
   2.2700         0
   2.2800         0
   2.2900         1
   2.3000         0
   2.3100         0
   2.3200         0
   2.3300         0
   2.3400         0
   2.3500         0
   2.3600         0
   2.3700         1
   2.3800         0
   2.3900         0
   2.4000         0
   2.4100         0
   2.4200         1
   2.4300         0
   2.4400         0
   2.4500         0
   2.4600         0
   2.4700         0
   2.4800         1
   2.4900         0
   2.5000         0