File: V44/data/messung1.UXD
; E:\FP\messung1.raw(Diffrac Plus V1.01 file) converted by XCH V1.0
_FILEVERSION=2
_SITE='Deutschland'
_USER='Administrator'
_GONIOMETER_CODE=4885
; D8 Theta/Theta; Special
_SAMPLE_CHANGER_CODE=0
_ATTACHMENTS_CODE=0
_GONIOMETER_RADIUS=350
_FIXED_DIVSLIT=0.600000
_FIXED_SAMPLESLIT=0.000000
_FIXED_DETSLIT=11.66
_MONOCHROMATOR=0
; None
_THIN_FILM='N'
_BETA_FILTER='Y'
_FIXED_ANTISLIT=8.340000
_ANALYZER_CODE=0
; None
_DATEMEASURED='07-Nov-2022 11:25:05'
_WL_UNIT='A'
_WL1=1.540600
_WL2=1.544390
_WL3=1.392220
_WLRATIO=0.500000
_ANODE='Cu'
; (Data for Range number 1)
_DRIVE='THETA'
_STEPTIME=5.000660
_STEPSIZE=0.005000
_STEPMODE='C'
_START=0.000000
_THETA=0.000000
_2THETA=0.000000
_KHI=0.000000
_PHI=92.46
_X=0.000000
_Y=-1.000000
_Z=0.204000
_DIVERGENCE=0.000000
_ANTISCATTER=0.000000
_DETECTOR=5
_DETECTORSLIT='unkn'
_AUX1=0.000000
_AUX2=0.000000
_AUX3=0.000000
_TIMESTARTED=2.000000
_TEMP_RATE=-1.000000
_TEMP_DELAY=-1.000000
_KV=40
_MA=35
_RANGE_WL=1.540600
_3DPLANE=0
_GONIOMETER=-0.002500
_PSDCHANNEL0=0
_2THETACOUNTS
   0.0000   1940630
   0.0100   2500710
   0.0200   2416070
   0.0300   1663700
   0.0400   1208490
   0.0500   1045870
   0.0600   1021440
   0.0700   1031270
   0.0800   1093690
   0.0900   1173790
   0.1000   1251730
   0.1100   1334640
   0.1200   1417000
   0.1300   1508760
   0.1400   1590830
   0.1500   1623230
   0.1600   1647170
   0.1700   1678710
   0.1800   1737780
   0.1900   1791390
   0.2000   1769160
   0.2100   1598700
   0.2200   1233450
   0.2300    752009
   0.2400    428242
   0.2500    255108
   0.2600    197460
   0.2700    143799
   0.2800     88032
   0.2900     64308
   0.3000     66168
   0.3100     61443
   0.3200     42706
   0.3300     28072
   0.3400     26893
   0.3500     30417
   0.3600     27524
   0.3700     18708
   0.3800     12754
   0.3900     13603
   0.4000     16024
   0.4100     14019
   0.4200      9541
   0.4300      6736
   0.4400      7619
   0.4500      9131
   0.4600      8246
   0.4700      5593
   0.4800      4064
   0.4900      4496
   0.5000      5574
   0.5100      5162
   0.5200      3558
   0.5300      2521
   0.5400      2786
   0.5500      3403
   0.5600      3289
   0.5700      2359
   0.5800      1618
   0.5900      1793
   0.6000      2232
   0.6100      2254
   0.6200      1741
   0.6300      1145
   0.6400      1051
   0.6500      1325
   0.6600      1499
   0.6700      1227
   0.6800       799
   0.6900       702
   0.7000       910
   0.7100      1033
   0.7200       921
   0.7300       621
   0.7400       484
   0.7500       600
   0.7600       662
   0.7700       676
   0.7800       471
   0.7900       357
   0.8000       364
   0.8100       555
   0.8200       496
   0.8300       391
   0.8400       281
   0.8500       268
   0.8600       339
   0.8700       383
   0.8800       322
   0.8900       213
   0.9000       205
   0.9100       209
   0.9200       262
   0.9300       216
   0.9400       178
   0.9500       138
   0.9600       162
   0.9700       182
   0.9800       180
   0.9900       158
   1.0000        68
   1.0100       108
   1.0200       110
   1.0300       143
   1.0400       132
   1.0500        94
   1.0600        72
   1.0700        91
   1.0800       106
   1.0900       105
   1.1000        68
   1.1100        44
   1.1200        82
   1.1300        87
   1.1400        78
   1.1500        56
   1.1600        52
   1.1700        50
   1.1800        62
   1.1900        72
   1.2000        52
   1.2100        42
   1.2200        37
   1.2300        50
   1.2400        48
   1.2500        36
   1.2600        23
   1.2700        29
   1.2800        21
   1.2900        38
   1.3000        31
   1.3100        28
   1.3200        24
   1.3300        23
   1.3400        24
   1.3500        25
   1.3600        22
   1.3700        14
   1.3800        12
   1.3900        21
   1.4000        17
   1.4100        13
   1.4200        12
   1.4300         5
   1.4400        13
   1.4500        14
   1.4600        17
   1.4700        10
   1.4800        16
   1.4900        12
   1.5000        14
   1.5100        19
   1.5200         7
   1.5300         7
   1.5400        11
   1.5500        10
   1.5600         5
   1.5700         7
   1.5800         6
   1.5900         7
   1.6000         5
   1.6100         8
   1.6200         5
   1.6300         3
   1.6400         7
   1.6500         9
   1.6600         8
   1.6700         8
   1.6800        10
   1.6900         7
   1.7000        10
   1.7100         4
   1.7200         5
   1.7300         4
   1.7400         1
   1.7500         5
   1.7600         4
   1.7700         3
   1.7800         5
   1.7900         4
   1.8000         2
   1.8100         3
   1.8200         3
   1.8300         5
   1.8400         4
   1.8500         2
   1.8600         2
   1.8700         8
   1.8800         4
   1.8900         1
   1.9000         4
   1.9100         1
   1.9200         1
   1.9300         1
   1.9400         3
   1.9500         2
   1.9600         4
   1.9700         2
   1.9800         2
   1.9900         1
   2.0000         1
   2.0100         2
   2.0200         0
   2.0300         0
   2.0400         2
   2.0500         0
   2.0600         2
   2.0700         0
   2.0800         1
   2.0900         0
   2.1000         2
   2.1100         1
   2.1200         2
   2.1300         0
   2.1400         1
   2.1500         1
   2.1600         3
   2.1700         4
   2.1800         0
   2.1900         0
   2.2000         2
   2.2100         0
   2.2200         0
   2.2300         1
   2.2400         1
   2.2500         2
   2.2600         0
   2.2700         2
   2.2800         2
   2.2900         1
   2.3000         0
   2.3100         1
   2.3200         0
   2.3300         0
   2.3400         1
   2.3500         2
   2.3600         1
   2.3700         0
   2.3800         0
   2.3900         1
   2.4000         0
   2.4100         3
   2.4200         0
   2.4300         1
   2.4400         0
   2.4500         4
   2.4600         1
   2.4700         2
   2.4800         0
   2.4900         0
   2.5000         0