File: V44/data/rocking1.UXD
; E:\FP\rocking1.raw(Diffrac Plus V1.01 file) converted by XCH V1.0
_FILEVERSION=2
_SITE='Deutschland'
_USER='Administrator'
_GONIOMETER_CODE=4885
; D8 Theta/Theta; Special
_SAMPLE_CHANGER_CODE=0
_ATTACHMENTS_CODE=0
_GONIOMETER_RADIUS=350
_FIXED_DIVSLIT=0.600000
_FIXED_SAMPLESLIT=0.000000
_FIXED_DETSLIT=11.66
_MONOCHROMATOR=0
; None
_THIN_FILM='N'
_BETA_FILTER='Y'
_FIXED_ANTISLIT=8.340000
_ANALYZER_CODE=0
; None
_DATEMEASURED='07-Nov-2022 11:15:25'
_WL_UNIT='A'
_WL1=1.540600
_WL2=1.544390
_WL3=1.392220
_WLRATIO=0.500000
_ANODE='Cu'
; (Data for Range number 1)
_DRIVE='THETA'
_STEPTIME=0.299990
_STEPSIZE=0.005000
_STEPMODE='C'
_START=0.000000
_THETA=0.000000
_2THETA=0.300000
_KHI=0.000000
_PHI=92.46
_X=0.000000
_Y=-1.000000
_Z=0.204000
_DIVERGENCE=0.000000
_ANTISCATTER=0.000000
_DETECTOR=5
_DETECTORSLIT='unkn'
_AUX1=0.000000
_AUX2=0.000000
_AUX3=0.000000
_TIMESTARTED=2.000000
_TEMP_RATE=-1.000000
_TEMP_DELAY=-1.000000
_KV=40
_MA=35
_RANGE_WL=1.540600
_3DPLANE=0
_GONIOMETER=0.300000
_PSDCHANNEL0=0
_2THETACOUNTS
   0.0000       809
   0.0050       818
   0.0100       848
   0.0150       901
   0.0200       826
   0.0250       862
   0.0300       894
   0.0350       839
   0.0400       819
   0.0450       957
   0.0500       975
   0.0550      1035
   0.0600      1148
   0.0650      1212
   0.0700      1237
   0.0750      1462
   0.0800      1711
   0.0850      1983
   0.0900      2330
   0.0950      2817
   0.1000      3331
   0.1050      3938
   0.1100      4861
   0.1150      5993
   0.1200      7367
   0.1250     11713
   0.1300     24216
   0.1350     46005
   0.1400     75406
   0.1450     86339
   0.1500     96364
   0.1550     95803
   0.1600     91269
   0.1650     76306
   0.1700     53214
   0.1750     30517
   0.1800     17395
   0.1850      9527
   0.1900      6757
   0.1950      5267
   0.2000      4230
   0.2050      3430
   0.2100      2808
   0.2150      2285
   0.2200      1938
   0.2250      1614
   0.2300      1422
   0.2350      1258
   0.2400      1144
   0.2450      1008
   0.2500       983
   0.2550       919
   0.2600       921
   0.2650       962
   0.2700       931
   0.2750       865
   0.2800       825
   0.2850       801
   0.2900       820
   0.2950       788
   0.3000       782